start date: 	2023-08-11							
start time: 	15.05.56							
stop date: 	2023-08-11							
stop time: 	15.27.05							
com rel. humid (%):	33.5							
com temp (°C):	29.00							
cn temp (°C):	31.19							
nv temp (°C):	35.31							
bvd averages: 	     20							
remarks: 	CCC probe connected to GaAs probe, GaAs 8 V+=Yel, V-=Wht, I+=Wht, I-=Blk, B = 11.56 T (84.4 A), Psample = 3.0 - 4.0e-3 mbar, using 4G power supply							
R1 Info: 	NIST-QHRGaAs13k-8(1.290640373E+4)( 0.0000)							
R2 Info: 	1215(1.000000000E+2)( 0.0000)							
data filepath: 	M:\MagniconData\CCCViewerData\cccviewer_measure\2023-08-11_CCC\230811_003_1505.txt							
config filepath: 	M:\MagniconData\CCCViewerData\cccviewer_measure\2023-08-11_CCC\230811_003_1505_cccdrive.cfg							
setup_file_path	M:\MagniconData\SQUIDViewerData\Magnicon1\Magicon CCC Probe CPS 2017-02.stp							
time base (Hz): 	60							
integration time (time base multiples):	60							
number of samples per half cycle: 	30							
ignored first samples: 	14							
ignored last samples: 	0							
amplifier gain: 	1000000							
delta N1/NA (mTurns): 	24.459551554							
delta (I2*R2) (V): 	1.000030519							
N1 (Turns):	2065							
N2 (Turns):	16							
NA (Turns):	1							
R1 (Ohm): 	12906.404000							
R2 (Ohm): 	100.000000							
								
N1:	2065							
N2:	16							

								
Mode:	AMP							
Rf Amp::	1.65 kOhm							
Amp Gain:	NEG							
Rf FLL:	9.10 kOhm							
SQUID Gain:	PLUS							
I1 Range:	300uA							
I1 Amplitude:	38.746300E-6							
feedin Polarity:	NEG							
I1 SQUID feedIn (ON/OFF):	OFF							
I1 SQUID feedin:	-37.0dB							
I2 Range:	20mA							
I2 Amplitude:	5.000153E-3							
I2 SQUID feedIn (ON/OFF):	ON							
I2 SQUID feedin:	-47.0dB							
Screen (+):	ON							
Screen (-):	OFF							
Screen Amplitude:	500.044371E-3							
External Power:	ON							

								
Results								
Standard Pressure Correction:	(100525.524)							
Res(ppm)	stdd(ppm)	stddrtN-1(ppm)	resistance(ohm)					
0.0686	0.0047	0.0010	1.000000065E+2					

								
#points	bvd(V)	bvdmean(V)	stddrtN-1(V)	R(ppm)	RMean(ohm)	RMean(ppm)	stdd(ppm)	stddrtN-1(ppm)

								
1	-3.478500E-9	-3.478500E-9	NaN	6.950786E-2	1.000000070E+2	6.950786E-2	NaN	NaN
2	6.510000E-10	-1.413750E-9	2.064750E-9	6.537849E-2	1.000000068E+2	6.744318E-2	2.919909E-3	2.064687E-3
3	2.576250E-10	-8.566250E-10	1.315847E-9	6.577185E-2	1.000000067E+2	6.688607E-2	2.279044E-3	1.315807E-3
4	-5.983125E-9	-2.138250E-9	1.583758E-9	7.201241E-2	1.000000069E+2	6.816766E-2	3.167419E-3	1.583710E-3
5	-2.556375E-9	-2.221875E-9	1.229620E-9	6.858577E-2	1.000000069E+2	6.825128E-2	2.749431E-3	1.229583E-3
6	-1.280625E-8	-3.985938E-9	2.029752E-9	7.883533E-2	1.000000070E+2	7.001529E-2	4.971706E-3	2.029690E-3
7	-1.611375E-9	-3.646714E-9	1.748672E-9	6.764080E-2	1.000000070E+2	6.967607E-2	4.626410E-3	1.748619E-3
8	-7.899375E-9	-4.178297E-9	1.604983E-9	7.392861E-2	1.000000071E+2	7.020764E-2	4.539439E-3	1.604934E-3
9	-3.066375E-9	-4.054750E-9	1.420844E-9	6.909575E-2	1.000000070E+2	7.008410E-2	4.262401E-3	1.420800E-3
10	-3.973875E-9	-4.046663E-9	1.270867E-9	7.000322E-2	1.000000070E+2	7.007601E-2	4.018711E-3	1.270828E-3
11	2.511375E-9	-3.450477E-9	1.294946E-9	6.351817E-2	1.000000070E+2	6.947984E-2	4.294718E-3	1.294906E-3
12	-5.011875E-9	-3.580594E-9	1.189258E-9	7.104119E-2	1.000000070E+2	6.960996E-2	4.119584E-3	1.189222E-3
13	7.477500E-10	-3.247644E-9	1.143503E-9	6.528174E-2	1.000000070E+2	6.927702E-2	4.122834E-3	1.143468E-3
14	4.762875E-9	-2.675464E-9	1.203407E-9	6.126674E-2	1.000000069E+2	6.870485E-2	4.502601E-3	1.203371E-3
15	9.551250E-10	-2.433425E-9	1.146159E-9	6.507437E-2	1.000000069E+2	6.846282E-2	4.438920E-3	1.146124E-3
16	5.967000E-9	-1.908398E-9	1.193785E-9	6.006265E-2	1.000000068E+2	6.793781E-2	4.774996E-3	1.193749E-3
17	-1.016325E-8	-2.393978E-9	1.221986E-9	7.619241E-2	1.000000069E+2	6.842338E-2	5.038223E-3	1.221949E-3
18	-5.543250E-9	-2.568938E-9	1.165308E-9	7.157255E-2	1.000000069E+2	6.859833E-2	4.943834E-3	1.165273E-3
19	-3.331875E-9	-2.609092E-9	1.103002E-9	6.936124E-2	1.000000069E+2	6.863848E-2	4.807730E-3	1.102969E-3
20	-1.772625E-9	-2.567269E-9	1.047236E-9	6.780204E-2	1.000000069E+2	6.859666E-2	4.683237E-3	1.047204E-3
